File: notebooks/example_data/xrd_phase_identification/CeO2_wl=0.1820.xy
0.831674 23.6875
0.883373 23.0798
0.935073 22.518
0.986773 22.1123
1.03847 21.7423
1.09017 21.2357
1.14187 20.9937
1.19357 20.9063
1.24527 21.0402
1.29697 21.0243
1.34868 20.9747
1.40038 20.9357
1.45208 20.8068
1.50378 20.6866
1.55548 20.5719
1.60719 20.5202
1.65889 20.4525
1.71059 20.3283
1.7623 20.4346
1.814 20.4199
1.86571 20.4766
1.91741 20.4488
1.96912 20.403
2.02082 20.2784
2.07253 20.2819
2.12423 20.1714
2.17594 20.017
2.22765 19.9424
2.27936 19.7553
2.33106 19.5053
2.38277 19.367
2.43448 19.211
2.48619 18.914
2.5379 18.8754
2.58961 18.7826
2.64132 18.5882
2.69304 18.4695
2.74475 18.3618
2.79646 18.2796
2.84818 18.2069
2.89989 18.1849
2.9516 18.1801
3.00332 18.2698
3.05504 18.5151
3.10675 18.8416
3.15847 19.7617
3.21019 21.9305
3.26191 31.5971
3.31362 291.917
3.36534 280.943
3.41706 29.9592
3.46879 20.5946
3.52051 18.202
3.57223 17.2475
3.62395 16.7747
3.67568 16.621
3.7274 16.965
3.77913 19.4448
3.83085 98.1911
3.88258 86.7566
3.93431 18.3059
3.98604 15.6926
4.03777 14.8967
4.0895 14.4891
4.14123 14.2832
4.19296 14.0475
4.24469 13.9314
4.29643 13.8062
4.34816 13.6937
4.3999 13.5622
4.45163 13.5445
4.50337 13.4273
4.55511 13.3431
4.60685 13.2269
4.65859 13.2003
4.71033 13.1671
4.76207 13.2022
4.81381 13.1755
4.86556 13.1568
4.9173 13.1399
4.96905 13.1525
5.0208 13.2455
5.07254 13.3214
5.12429 13.458
5.17604 13.7002
5.2278 14.0663
5.27955 14.8031
5.3313 16.5461
5.38305 25.3602
5.43481 269.411
5.48657 118.685
5.53832 20.6814
5.59008 15.5579
5.64184 14.1635
5.6936 13.6161
5.74537 13.251
5.79713 13.0711
5.84889 12.9931
5.90066 12.9195
5.95243 12.8935
6.0042 12.9054
6.05597 13.029
6.10774 13.1586
6.15951 13.4461
6.21128 13.988
6.26306 15.3481
6.31483 20.6376
6.36661 127.244
6.41839 189.925
6.47017 21.9168
6.52195 15.5787
6.57373 14.596
6.62551 17.3641
6.6773 78.5288
6.72909 18.3693
6.78087 13.3574
6.83266 12.7156
6.88445 12.4229
6.93624 12.2901
6.98804 12.1858
7.03983 12.0953
7.09163 12.0337
7.14343 12.0087
7.19523 11.9707
7.24703 11.9685
7.29883 11.9602
7.35063 11.986
7.40244 11.9553
7.45424 12.0101
7.50605 12.0846
7.55786 12.2964
7.60967 12.7706
7.66149 16.269
7.7133 81.3589
7.76512 17.1274
7.81693 12.8978
7.86875 12.3528
7.92057 12.2625
7.9724 12.216
8.02422 12.2573
8.07605 12.3041
8.12787 12.4504
8.1797 12.5805
8.23153 12.9414
8.28337 13.7678
8.3352 17.3704
8.38704 93.1168
8.43887 61.1247
8.49071 16.7843
8.54255 15.7977
8.5944 37.8341
8.64624 74.5401
8.69809 15.8383
8.74993 13.3391
8.80178 12.7416
8.85364 12.4911
8.90549 12.3597
8.95734 12.249
9.0092 12.2379
9.06106 12.2216
9.11292 12.1842
9.16478 12.3057
9.21665 12.4487
9.26851 12.7115
9.32038 13.3459
9.37225 15.8999
9.42413 59.7586
9.476 81.0323
9.52788 16.4772
9.57975 13.3584
9.63163 12.6697
9.68352 12.4395
9.7354 12.3371
9.78729 12.3392
9.83917 12.4723
9.89106 12.955
9.94296 14.7325
9.99485 41.7652
10.0467 83.1222
10.0986 15.9488
10.1505 13.017
10.2024 12.3398
10.2544 12.0686
10.3063 11.9185
10.3582 11.824
10.4101 11.7936
10.462 11.7808
10.5139 11.7452
10.5658 11.788
10.6177 11.8
10.6697 11.8438
10.7216 11.9524
10.7735 12.1358
10.8254 12.7185
10.8774 17.6676
10.9293 47.002
10.9812 14.3848
11.0332 12.5804
11.0851 12.332
11.1371 12.333
11.189 12.4613
11.2409 12.7448
11.2929 13.4073
11.3448 16.0143
11.3968 58.5956
11.4488 58.2083
11.5007 17.0048
11.5527 26.6905
11.6046 41.4094
11.6566 14.3407
11.7086 12.8192
11.7605 12.3797
11.8125 12.267
11.8645 12.1464
11.9165 12.0492
11.9684 12.0443
12.0204 12.1387
12.0724 12.3764
12.1244 13.118
12.1764 22.5652
12.2284 51.6469
12.2804 14.3964
12.3324 12.5505
12.3844 12.183
12.4364 12.0833
12.4884 12.1363
12.5404 12.3645
12.5924 13.4935
12.6444 30.5549
12.6964 24.5126
12.7484 14.4029
12.8005 31.7459
12.8525 17.0673
12.9045 12.4183
12.9565 11.9397
13.0086 11.8654
13.0606 11.7194
13.1126 11.7359
13.1647 11.7282
13.2167 11.75
13.2688 11.756
13.3208 12.4202
13.3729 20.3815
13.4249 14.2919
13.477 12.0762
13.529 11.966
13.5811 11.9902
13.6332 12.1832
13.6852 12.6686
13.7373 15.1346
13.7894 52.0707
13.8415 21.8732
13.8935 16.2966
13.9456 27.6937
13.9977 13.437
14.0498 12.4005
14.1019 12.1631
14.154 12.1877
14.2061 12.084
14.2582 12.2115
14.3103 12.4852
14.3624 13.0867
14.4145 18.031
14.4666 58.3324
14.5187 17.6058
14.5708 13.1488
14.6229 12.6192
14.6751 12.4793
14.7272 12.8648
14.7793 14.72
14.8315 45.4637
14.8836 30.0929
14.9357 13.6742
14.9879 12.4159
15.04 11.986
15.0922 11.8055
15.1443 11.7144
15.1965 11.5994
15.2486 11.6649
15.3008 11.5876
15.3529 11.8457
15.4051 12.0394
15.4573 15.7146
15.5095 13.2708
15.5616 12.0245
15.6138 12.1761
15.6474 12.2784