File: notebooks/example_data/xrd_phase_identification/unknown_xrd_4_wl=0.1814Angst.xy
1.15988 28.9522
1.21431 28.8965
1.26873 28.8225
1.32316 28.5604
1.37758 28.3315
1.43201 27.9395
1.48644 27.5861
1.54086 27.3206
1.59529 27.0478
1.64972 26.6375
1.70415 26.5936
1.75858 26.5716
1.813 26.4172
1.86743 26.3908
1.92186 26.2415
1.97629 26.0281
2.03072 25.9886
2.08515 26.0083
2.13959 25.5882
2.19402 25.3853
2.24845 25.0197
2.30288 24.7897
2.35732 24.4633
2.41175 24.143
2.46619 23.9546
2.52062 23.8209
2.57506 23.7115
2.62949 23.2704
2.68393 23.3518
2.73837 23.1973
2.7928 23.1384
2.84724 23.1736
2.90168 23.1781
2.95612 23.079
3.01056 23.2271
3.065 23.0474
3.11945 23.0164
3.17389 23.0325
3.22833 22.9253
3.28278 23.0424
3.33722 27.2246
3.39167 46.4143
3.44611 22.8981
3.50056 22.968
3.55501 23.848
3.60946 23.6356
3.66391 24.4997
3.71836 25.7454
3.77281 28.3586
3.82726 38.2958
3.88171 3499.72
3.93617 51.0017
3.99062 30.6292
4.04508 27.7047
4.09953 26.1496
4.15399 23.7433
4.20845 22.5944
4.26291 22.1105
4.31737 21.8176
4.37183 22.1597
4.42629 26.3902
4.48076 500.754
4.53522 24.7651
4.58969 21.2323
4.64415 20.9432
4.69862 20.5225
4.75309 19.2629
4.80756 18.9066
4.86203 18.6433
4.9165 18.5064
4.97097 18.521
5.02545 19.1964
5.07992 19.1967
5.1344 41.5423
5.18888 27.4466
5.24336 19.575
5.29784 19.5007
5.35232 20.0239
5.4068 21.637
5.46128 35.1281
5.51577 689.033
5.57025 24.1465
5.62474 20.4092
5.67923 19.1709
5.73372 18.6434
5.78821 18.2868
5.8427 18.0459
5.8972 18.0317
5.95169 17.7936
6.00619 18.2173
6.06068 19.1336
6.11518 21.2148
6.16968 20.1186
6.22419 18.3328
6.27869 18.361
6.33319 64.4161
6.3877 22.4179
6.44221 127.391
6.49672 21.0072
6.55123 17.5809
6.60574 17.1593
6.66025 17.3068
6.71477 35.1657
6.76928 37.6401
6.8238 17.1848
6.87832 16.7202
6.93284 16.6287
6.98737 16.6971
7.04189 17.1302
7.09642 17.2455
7.15094 17.0898
7.20547 16.8773
7.26 19.1823
7.31454 64.5061
7.36907 16.9533
7.42361 17.5754
7.47814 17.2239
7.53268 16.8389
7.58722 17.1652
7.64177 17.4564
7.69631 17.7118
7.75086 23.9853
7.8054 98.1088
7.85995 17.9808
7.9145 17.205
7.96906 17.0243
8.02361 16.8602
8.07817 16.8914
8.13273 16.8846
8.18729 16.9817
8.24185 17.0205
8.29642 17.3088
8.35098 17.6721
8.40555 18.2685
8.46012 28.1222
8.51469 34.3585
8.56926 43.2283
8.62384 20.3235
8.67842 54.3037
8.733 100.075
8.78758 20.2732
8.84216 18.633
8.89675 18.6294
8.95134 49.2211
9.00593 23.4262
9.06052 17.1633
9.11511 16.8406
9.16971 16.7737
9.2243 16.5941
9.27891 16.6128
9.33351 16.7339
9.38811 16.8543
9.44272 17.043
9.49733 21.8669
9.55194 110.095
9.60655 17.8223
9.66117 16.2969
9.71578 15.8417
9.7704 15.9446
9.82502 15.6682
9.87965 15.399
9.93427 15.5743
9.9889 16.0296
10.0435 43.8389
10.0982 26.6335
10.1528 21.0532
10.2074 15.4077
10.2621 15.2034
10.3167 21.6193
10.3714 15.1628
10.426 14.7071
10.4807 14.8067
10.5353 14.5966
10.59 14.7397
10.6446 14.8581
10.6993 14.8519
10.7539 14.9355
10.8086 15.2535
10.8633 15.3377
10.9179 15.6363
10.9726 17.9827
11.0273 52.9412
11.082 16.8842
11.1366 15.9993
11.1913 16.1095
11.246 22.9811
11.3007 16.3082
11.3554 16.2894
11.4101 16.494
11.4648 17.2572
11.5195 42.9669
11.5742 29.525
11.6289 18.8062
11.6836 63.1298
11.7383 21.7489
11.793 17.257
11.8477 16.8146
11.9024 16.4692
11.9571 16.4251
12.0119 16.3681
12.0666 16.4329
12.1213 16.5269
12.176 16.7318
12.2308 17.2541
12.2855 19.6295
12.3402 62.5639
12.395 17.9721
12.4497 17.1365
12.5045 16.9594
12.5592 16.8447
12.614 17.4542
12.6687 30.5671
12.7235 20.7171
12.7783 20.2642
12.833 17.4207
12.8878 18.6405
12.9426 40.6851
12.9973 17.5748
13.0521 16.6673
13.1069 16.4505
13.1617 16.3519
13.2164 16.3367
13.2712 16.3084
13.326 16.5095
13.3808 16.4198
13.4356 19.9389
13.4904 22.9912
13.5452 17.7697
13.6 16.5994
13.6548 16.412
13.7096 16.4997
13.7645 16.5291
13.8193 16.722
13.8741 17.3865
13.9289 28.1538
13.9838 18.3385
14.0386 23.2106
14.0934 28.9737
14.1483 17.7813
14.2031 18.0917
14.2579 19.4177
14.3128 17.5054
14.3676 17.4054
14.4225 17.5562
14.4774 17.7216
14.5322 18.3749
14.5871 34.8448
14.642 27.5066
14.6968 17.9712
14.7517 17.6101
14.8066 17.6032
14.8615 17.4495
14.9163 19.0274
14.9712 23.856
15.0261 21.4305
15.081 17.4245
15.1359 17.4424
15.1908 17.2772
15.2457 17.2535
15.3006 20.4925
15.3555 17.3789
15.4105 17.1895
15.4654 17.5076
15.5203 23.4453
15.5752 17.9963
15.6302 20.4201
15.6851 17.645
15.74 17.8298
15.795 17.8682
15.8499 18.2201
15.9049 18.0508
15.9598 19.8103
16.0148 20.052
16.0697 22.4035
16.1247 27.8257
16.1797 19.0819
16.2346 20.1488
16.2896 18.9859
16.3446 20.1545
16.3996 19.673
16.4546 18.9476
16.5096 18.9699
16.5645 28.5288
16.6195 20.3451
16.6745 17.9997
16.7296 17.348
16.7649 18.7985