File: notebooks/example_data/xrd_phase_identification/unknown_xrd_2_wl=0.1824Angst.xy
1.2492e+00 1.2646e-01
1.2857e+00 1.0077e-01
1.3223e+00 1.0009e-01
1.3589e+00 1.0721e-01
1.3955e+00 9.8965e-02
1.4321e+00 1.0564e-01
1.4687e+00 1.1930e-01
1.5052e+00 1.1791e-01
1.5418e+00 1.0212e-01
1.5784e+00 1.0826e-01
1.6150e+00 1.0564e-01
1.6516e+00 1.0063e-01
1.6882e+00 9.9633e-02
1.7247e+00 1.1219e-01
1.7613e+00 1.1217e-01
1.7979e+00 1.0403e-01
1.8345e+00 1.1974e-01
1.8711e+00 1.2614e-01
1.9077e+00 1.0591e-01
1.9442e+00 1.2284e-01
1.9808e+00 1.2868e-01
2.0174e+00 1.1816e-01
2.0540e+00 1.1919e-01
2.0906e+00 1.0846e-01
2.1272e+00 1.2188e-01
2.1638e+00 1.2822e-01
2.2003e+00 1.1442e-01
2.2369e+00 1.0927e-01
2.2735e+00 1.2265e-01
2.3101e+00 1.0989e-01
2.3467e+00 1.3086e-01
2.3833e+00 1.2356e-01
2.4199e+00 1.2459e-01
2.4565e+00 1.1974e-01
2.4931e+00 1.1599e-01
2.5296e+00 1.3184e-01
2.5662e+00 1.3326e-01
2.6028e+00 1.2201e-01
2.6394e+00 1.2741e-01
2.6760e+00 1.2422e-01
2.7126e+00 1.2748e-01
2.7492e+00 1.7325e-01
2.7858e+00 1.5562e-01
2.8224e+00 1.2141e+00
2.8590e+00 5.5658e-01
2.8955e+00 1.3787e-01
2.9321e+00 1.2305e-01
2.9687e+00 1.3527e-01
3.0053e+00 1.6682e-01
3.0419e+00 1.4925e-01
3.0785e+00 1.2422e-01
3.1151e+00 1.3696e-01
3.1517e+00 1.4412e-01
3.1883e+00 1.9252e-01
3.2249e+00 1.7606e-01
3.2615e+00 1.3786e-01
3.2981e+00 1.4705e-01
3.3347e+00 1.4203e-01
3.3713e+00 1.3518e-01
3.4079e+00 1.6103e-01
3.4445e+00 1.9389e-01
3.4811e+00 2.3120e-01
3.5177e+00 3.2989e-01
3.5542e+00 3.5764e-01
3.5908e+00 1.6634e-01
3.6274e+00 1.4740e-01
3.6640e+00 1.4485e-01
3.7006e+00 1.4722e-01
3.7372e+00 1.6353e-01
3.7738e+00 1.6727e-01
3.8104e+00 1.9201e-01
3.8470e+00 1.3166e+00
3.8836e+00 6.3868e+00
3.9202e+00 2.5812e-01
3.9568e+00 1.6508e-01
3.9934e+00 1.5242e-01
4.0301e+00 1.6878e-01
4.0667e+00 2.2693e-01
4.1033e+00 2.9958e-01
4.1399e+00 5.4012e+00
4.1765e+00 7.8984e-01
4.2131e+00 1.8849e-01
4.2497e+00 1.6662e-01
4.2863e+00 1.7262e-01
4.3229e+00 1.5853e-01
4.3595e+00 1.4459e-01
4.3961e+00 1.4301e-01
4.4327e+00 1.4713e-01
4.4693e+00 1.6047e-01
4.5059e+00 1.8399e-01
4.5425e+00 2.0331e-01
4.5791e+00 2.3491e-01
4.6158e+00 1.7920e-01
4.6524e+00 1.6554e-01
4.6890e+00 1.7854e-01
4.7256e+00 1.4484e+00
4.7622e+00 3.6518e-01
4.7988e+00 1.5982e-01
4.8354e+00 1.8739e-01
4.8720e+00 1.7318e-01
4.9086e+00 1.5436e-01
4.9453e+00 1.4281e-01
4.9819e+00 1.9493e-01
5.0185e+00 2.7923e-01
5.0551e+00 1.6990e-01
5.0917e+00 1.5897e-01
5.1283e+00 1.5414e-01
5.1650e+00 1.4855e-01
5.2016e+00 1.4559e-01
5.2382e+00 1.5915e-01
5.2748e+00 1.6078e-01
5.3114e+00 1.5102e-01
5.3480e+00 1.4810e-01
5.3847e+00 1.4228e-01
5.4213e+00 1.3848e-01
5.4579e+00 1.4772e-01
5.4945e+00 1.4854e-01
5.5312e+00 1.4122e-01
5.5678e+00 1.4520e-01
5.6044e+00 1.6794e-01
5.6410e+00 2.9437e-01
5.6777e+00 4.7278e+00
5.7143e+00 2.9264e-01
5.7509e+00 1.7290e-01
5.7875e+00 1.7005e-01
5.8242e+00 1.4802e-01
5.8608e+00 1.4658e-01
5.8974e+00 1.4293e-01
5.9340e+00 1.5957e-01
5.9707e+00 1.5337e-01
6.0073e+00 1.5355e-01
6.0439e+00 1.6140e-01
6.0806e+00 1.6373e-01
6.1172e+00 2.5069e-01
6.1538e+00 2.1688e+00
6.1905e+00 1.6461e+00
6.2271e+00 1.8959e-01
6.2637e+00 1.5298e-01
6.3004e+00 1.6152e-01
6.3370e+00 1.5852e-01
6.3736e+00 1.8777e-01
6.4103e+00 1.7564e-01
6.4469e+00 1.6723e-01
6.4836e+00 3.0494e-01
6.5202e+00 6.4367e-01
6.5568e+00 7.0382e-01
6.5935e+00 1.7198e-01
6.6301e+00 1.5441e-01
6.6668e+00 1.4207e-01
6.7034e+00 1.4145e-01
6.7400e+00 1.5755e-01
6.7767e+00 1.5310e-01
6.8133e+00 1.5127e-01
6.8500e+00 1.6567e-01
6.8866e+00 1.5807e-01
6.9233e+00 1.5283e-01
6.9599e+00 1.6730e-01
6.9966e+00 2.6113e-01
7.0332e+00 4.1348e+00
7.0699e+00 4.7635e-01
7.1065e+00 1.7821e-01
7.1432e+00 2.0582e-01
7.1798e+00 2.1836e+00
7.2165e+00 8.0345e-01
7.2531e+00 1.7834e-01
7.2898e+00 1.6633e-01
7.3264e+00 1.6237e-01
7.3631e+00 1.5933e-01
7.3997e+00 1.8593e-01
7.4364e+00 1.4393e-01
7.4731e+00 1.3954e-01
7.5097e+00 1.4075e-01
7.5464e+00 1.4166e-01
7.5830e+00 1.4269e-01
7.6197e+00 1.5124e-01
7.6564e+00 1.3834e-01
7.6930e+00 1.3945e-01
7.7297e+00 2.3991e-01
7.7663e+00 3.4080e-01
7.8030e+00 1.6242e-01
7.8397e+00 1.4615e-01
7.8763e+00 1.6118e-01
7.9130e+00 1.5314e-01
7.9497e+00 2.5295e-01
7.9863e+00 1.4355e+00
8.0230e+00 3.1927e-01
8.0597e+00 1.5422e-01
8.0964e+00 1.4734e-01
8.1330e+00 1.4993e-01
8.1697e+00 1.6298e-01
8.2064e+00 1.5773e-01
8.2430e+00 1.5152e-01
8.2797e+00 2.6904e-01
8.3164e+00 8.4772e-01
8.3531e+00 1.6171e-01
8.3898e+00 1.4278e-01
8.4264e+00 1.3983e-01
8.4631e+00 1.4344e-01
8.4998e+00 2.1590e-01
8.5365e+00 3.2718e-01
8.5732e+00 1.4580e-01
8.6098e+00 2.5379e-01
8.6465e+00 1.6881e-01
8.6832e+00 1.5748e-01
8.7199e+00 1.5293e-01
8.7566e+00 2.0438e-01
8.7933e+00 8.1358e-01
8.8300e+00 1.8244e-01
8.8666e+00 1.5261e-01
8.9033e+00 1.5504e-01
8.9400e+00 1.5255e-01
8.9767e+00 3.1169e-01
9.0134e+00 5.4357e-01
9.0501e+00 1.5979e-01
9.0868e+00 1.5830e-01
9.1235e+00 1.8111e-01
9.1602e+00 9.5987e-01
9.1969e+00 3.0032e-01
9.2336e+00 1.5258e-01
9.2703e+00 1.5655e-01
9.3070e+00 1.5713e-01
9.3437e+00 1.7652e-01
9.3804e+00 1.5160e-01
9.4171e+00 1.5201e-01
9.4538e+00 2.7051e-01
9.4905e+00 9.9245e-01
9.5272e+00 1.8504e-01
9.5639e+00 1.8871e-01
9.6006e+00 2.0275e-01
9.6373e+00 1.6456e-01
9.6741e+00 1.7327e-01
9.7108e+00 2.5421e-01
9.7475e+00 1.8129e-01
9.7842e+00 1.5984e-01
9.8209e+00 1.6337e-01
9.8576e+00 1.6502e-01
9.8943e+00 5.0874e-01
9.9311e+00 6.0322e-01
9.9678e+00 1.7654e-01
1.0004e+01 1.7491e-01
1.0041e+01 2.7556e-01
1.0078e+01 3.7966e-01
1.0115e+01 1.6527e-01
1.0151e+01 1.6105e-01
1.0188e+01 1.5241e-01
1.0225e+01 1.4625e-01
1.0262e+01 1.5032e-01
1.0298e+01 1.5387e-01
1.0335e+01 1.5161e-01
1.0372e+01 1.5050e-01
1.0408e+01 1.5047e-01
1.0445e+01 1.4481e-01
1.0482e+01 1.4328e-01
1.0519e+01 1.5465e-01
1.0555e+01 2.2290e-01
1.0592e+01 4.0599e-01
1.0629e+01 1.6250e-01
1.0666e+01 1.5408e-01
1.0702e+01 1.5492e-01
1.0739e+01 1.5522e-01
1.0776e+01 2.0782e-01
1.0813e+01 1.9902e-01
1.0849e+01 2.0433e-01
1.0886e+01 7.1061e-01
1.0923e+01 5.4361e-01
1.0960e+01 2.7075e-01
1.0996e+01 6.8380e-01
1.1033e+01 2.2060e-01
1.1070e+01 1.5983e-01
1.1107e+01 1.8406e-01
1.1143e+01 1.7765e-01
1.1180e+01 1.8737e-01
1.1217e+01 2.0327e-01
1.1244e+01 2.0157e-01