File: notebooks/003.xrd_phase_identification_with_pymatgen.data/mix_CeO2_LaB6_wl=0.1820.xy
0.831674 42.6071
0.883373 41.5224
0.935073 40.3126
0.986773 39.3534
1.03847 38.5213
1.09017 37.6343
1.14187 37.1242
1.19357 37.0216
1.24527 37.2023
1.29697 37.3202
1.34868 37.3626
1.40038 37.3749
1.45208 37.3024
1.50378 37.264
1.55548 37.2927
1.60719 37.4894
1.65889 37.7253
1.71059 38.0036
1.7623 38.5815
1.814 38.9971
1.86571 39.5862
1.91741 40.0001
1.96912 40.3132
2.02082 40.4129
2.07253 40.5256
2.12423 40.3894
2.17594 40.0872
2.22765 39.7023
2.27936 39.165
2.33106 38.5122
2.38277 38.0246
2.43448 37.9532
2.48619 94.5767
2.5379 59.7034
2.58961 35.8124
2.64132 34.7853
2.69304 34.1418
2.74475 33.5786
2.79646 33.0911
2.84818 32.6751
2.89989 32.3652
2.9516 32.0871
3.00332 31.9003
3.05504 31.8866
3.10675 31.9992
3.15847 32.6383
3.21019 34.5995
3.26191 44.026
3.31362 304.152
3.36534 293.048
3.41706 42.0741
3.46879 33.3756
3.52051 88.231
3.57223 118.79
3.62395 29.095
3.67568 27.8631
3.7274 27.8306
3.77913 30.072
3.83085 108.596
3.88258 97.0267
3.93431 28.4597
3.98604 25.7292
4.03777 24.8687
4.0895 24.4183
4.14123 24.1626
4.19296 23.9449
4.24469 23.9728
4.29643 26.0663
4.34816 147.976
4.3999 24.9178
4.45163 23.3368
4.50337 22.9873
4.55511 22.7874
4.60685 22.5845
4.65859 22.4373
4.71033 22.3622
4.76207 22.338
4.81381 22.2636
4.86556 22.2688
4.9173 22.2833
4.96905 23.4581
5.0208 97.048
5.07254 23.256
5.12429 22.4356
5.17604 22.547
5.2278 22.8186
5.27955 23.4876
5.3313 25.1665
5.38305 33.9441
5.43481 277.958
5.48657 127.268
5.53832 29.844
5.59008 88.911
5.64184 44.8752
5.6936 22.2992
5.74537 21.4895
5.79713 21.1516
5.84889 20.9662
5.90066 20.8352
5.95243 20.7737
6.0042 20.789
6.05597 21.0193
6.10774 25.0609
6.15951 85.8128
6.21128 22.2588
6.26306 23.0734
6.31483 28.2615
6.36661 134.775
6.41839 197.413
6.47017 29.3754
6.52195 23.0334
6.57373 22.0051
6.62551 24.7549
6.6773 85.8661
6.72909 25.71
6.78087 20.7028
6.83266 20.048
6.88445 19.7698
6.93624 19.6426
6.98804 19.5572
7.03983 19.7581
7.09163 49.2251
7.14343 20.3069
7.19523 19.3793
7.24703 19.3536
7.29883 19.342
7.35063 19.3827
7.40244 19.4196
7.45424 19.8299
7.50605 52.1545
7.55786 40.1598
7.60967 20.5207
7.66149 23.7459
7.7133 88.7597
7.76512 24.5342
7.81693 20.3817
7.86875 20.1625
7.92057 60.0108
7.9724 26.7112
8.02422 19.8309
8.07605 19.7226
8.12787 19.829
8.1797 19.9396
8.23153 20.3734
8.28337 22.8388
8.3352 62.133
8.38704 100.739
8.43887 68.4451
8.49071 24.0763
8.54255 23.064
8.5944 45.064
8.64624 81.8691
8.69809 30.0998
8.74993 20.6893
8.80178 19.9755
8.85364 19.7144
8.90549 19.61
8.95734 19.5305
9.0092 20.4342
9.06106 43.4797
9.11292 19.6788
9.16478 19.5532
9.21665 19.6821
9.26851 19.9627
9.32038 20.8006
9.37225 43.812
9.42413 76.8409
9.476 88.3517
9.52788 23.6428
9.57975 20.4674
9.63163 19.7587
9.68352 19.4985
9.7354 19.3892
9.78729 19.385
9.83917 19.5066
9.89106 19.9762
9.94296 21.7665
9.99485 48.9701
10.0467 98.779
10.0986 23.1375
10.1505 20.0805
10.2024 19.4084
10.2544 19.191
10.3063 19.867
10.3582 57.937
10.4101 19.5074
10.462 18.8675
10.5139 18.8
10.5658 18.8897
10.6177 21.0932
10.6697 43.2661
10.7216 19.1893
10.7735 19.151
10.8254 19.6976
10.8774 24.678
10.9293 59.5668
10.9812 23.5656
11.0332 19.5443
11.0851 19.2538
11.1371 19.2737
11.189 19.9374
11.2409 35.2769
11.2929 20.5199
11.3448 22.9435
11.3968 65.5128
11.4488 65.3087
11.5007 47.743
11.5527 35.9804
11.6046 48.3236
11.6566 21.206
11.7086 19.6908
11.7605 24.0479
11.8125 23.8371
11.8645 18.9591
11.9165 18.8053
11.9684 18.7648
12.0204 18.8498
12.0724 19.0745
12.1244 19.8263
12.1764 29.258
12.2284 58.3687
12.2804 22.3986
12.3324 23.6956
12.3844 18.9507
12.4364 18.8468
12.4884 18.9265
12.5404 21.4024
12.5924 23.261
12.6444 37.4023
12.6964 31.381
12.7484 21.4426
12.8005 56.444
12.8525 28.5801
12.9045 19.3474
12.9565 18.8068
13.0086 18.9284
13.0606 30.2941
13.1126 18.9693
13.1647 18.5453
13.2167 18.5391
13.2688 18.5408
13.3208 19.2301
13.3729 27.1946
13.4249 21.1509
13.477 19.1149
13.529 34.5661
13.5811 20.8632
13.6332 19.1088
13.6852 19.5579
13.7373 22.9142
13.7894 64.141
13.8415 28.7725
13.8935 23.1169
13.9456 34.4902
13.9977 20.2397
14.0498 19.211
14.1019 18.9532
14.154 19.0084
14.2061 20.8308
14.2582 20.1097
14.3103 19.3064
14.3624 19.9354
14.4145 26.8631
14.4666 74.0919
14.5187 24.5457
14.5708 19.9668
14.6229 20.068
14.6751 32.2685
14.7272 19.9069
14.7793 21.5216
14.8315 52.4532
14.8836 46.1899
14.9357 20.8866
14.9879 19.1429
15.04 18.8471
15.0922 25.1273
15.1443 18.6813
15.1965 18.2923
15.2486 18.3872
15.3008 20.7429
15.3529 18.7766
15.4051 18.8064
15.4573 22.7384
15.5095 30.763
15.5616 19.2569
15.6138 19.1971
15.6474 19.0782