File: notebooks/003.xrd_phase_identification_with_pymatgen.data/unknown_xrd_3_wl=0.1814Angst.xy
1.15988 31.3637
1.21431 31.3791
1.26873 31.4147
1.32316 31.2859
1.37758 30.8897
1.43201 30.2459
1.48644 29.8724
1.54086 29.4462
1.59529 29.0476
1.64972 29.7691
1.70415 28.6498
1.75858 28.4308
1.813 28.6501
1.86743 28.5252
1.92186 28.498
1.97629 28.3961
2.03072 28.2507
2.08515 27.7457
2.13959 27.4676
2.19402 27.0785
2.24845 26.361
2.30288 25.9316
2.35732 25.3407
2.41175 24.6784
2.46619 24.0723
2.52062 23.6654
2.57506 23.2793
2.62949 22.5989
2.68393 22.132
2.73837 21.7989
2.7928 21.9088
2.84724 42.6719
2.90168 27.1065
2.95612 20.3884
3.01056 19.6833
3.065 18.8445
3.11945 18.275
3.17389 17.769
3.22833 17.2201
3.28278 16.9598
3.33722 16.4665
3.39167 15.4902
3.44611 14.9418
3.50056 14.6723
3.55501 14.4095
3.60946 13.9837
3.66391 13.5044
3.71836 13.2679
3.77281 12.9104
3.82726 12.659
3.88171 12.517
3.93617 21.0288
3.99062 13.5991
4.04508 11.901
4.09953 11.5639
4.15399 24.1497
4.20845 11.2366
4.26291 10.896
4.31737 10.7366
4.37183 10.6949
4.42629 10.4441
4.48076 10.3399
4.53522 10.1652
4.58969 10.1247
4.64415 10.0588
4.69862 10.0199
4.75309 13.4936
4.80756 20.2574
4.86203 9.89691
4.9165 9.51542
4.97097 9.5619
5.02545 10.2531
5.07992 11.6493
5.1344 9.38309
5.18888 9.29821
5.24336 9.2555
5.29784 9.07216
5.35232 8.96935
5.4068 8.91767
5.46128 8.86671
5.51577 8.95536
5.57025 8.75517
5.62474 8.96853
5.67923 9.1112
5.73372 51.6173
5.78821 9.33513
5.8427 8.69697
5.8972 8.46736
5.95169 8.43
6.00619 8.4863
6.06068 8.47996
6.11518 8.45599
6.16968 8.55015
6.22419 9.0743
6.27869 61.8802
6.33319 10.6481
6.3877 10.0031
6.44221 8.90529
6.49672 9.04951
6.55123 42.7976
6.60574 8.84009
6.66025 8.32642
6.71477 11.5505
6.76928 8.77108
6.8238 8.25375
6.87832 8.23641
6.93284 8.17934
6.98737 8.19361
7.04189 8.69185
7.09642 31.7336
7.15094 9.14275
7.20547 31.4119
7.26 8.9669
7.31454 8.23823
7.36907 7.98869
7.42361 8.19245
7.47814 10.2681
7.53268 8.07417
7.58722 8.07364
7.64177 7.94723
7.69631 7.85362
7.75086 7.84756
7.8054 7.76475
7.85995 7.76009
7.9145 21.3611
7.96906 7.90863
8.02361 7.73725
8.07817 7.70129
8.13273 7.65322
8.18729 8.78958
8.24185 12.8647
8.29642 8.07266
8.35098 9.38006
8.40555 8.64758
8.46012 7.389
8.51469 7.33628
8.56926 7.37223
8.62384 9.18761
8.67842 8.90214
8.733 8.17194
8.78758 10.4548
8.84216 10.4446
8.89675 7.33582
8.95134 16.048
9.00593 7.00277
9.06052 6.93318
9.11511 6.78997
9.16971 6.77803
9.2243 11.7336
9.27891 6.81074
9.33351 6.55368
9.38811 6.64896
9.44272 10.377
9.49733 7.07728
9.55194 8.7227
9.60655 8.32192
9.66117 6.59385
9.71578 6.92446
9.7704 8.77588
9.82502 6.3534
9.87965 6.22996
9.93427 6.51866
9.9889 6.41631
10.0435 6.31957
10.0982 7.99088
10.1528 7.47682
10.2074 6.37681
10.2621 6.81222
10.3167 8.36022
10.3714 6.37675
10.426 6.19005
10.4807 6.2432
10.5353 6.33685
10.59 6.92327
10.6446 6.34253
10.6993 6.89814
10.7539 6.68986
10.8086 6.28359
10.8633 6.35334
10.9179 7.44271
10.9726 10.5728
11.0273 8.1028
11.082 6.26658
11.1366 6.26145
11.1913 6.22225
11.246 6.38298
11.3007 7.2606
11.3554 6.14071
11.4101 6.25178
11.4648 6.19732
11.5195 7.14972
11.5742 6.28224
11.6289 6.34805
11.6836 6.8017
11.7383 8.88963
11.793 6.52939
11.8477 6.69654
11.9024 11.7718
11.9571 6.96267
12.0119 12.953
12.0666 6.90946
12.1213 6.37808
12.176 6.46365
12.2308 9.35456
12.2855 6.80359
12.3402 6.39437
12.395 6.72986
12.4497 10.4479
12.5045 7.63826
12.5592 6.75459
12.614 7.7726
12.6687 6.48574
12.7235 7.95468
12.7783 7.01408
12.833 9.07435
12.8878 6.6721
12.9426 6.42107
12.9973 6.32552
13.0521 6.30073
13.1069 6.97982
13.1617 6.79276
13.2164 6.35008
13.2712 6.43635
13.326 6.56268
13.3808 7.17108
13.4356 6.68285
13.4904 8.24924
13.5452 6.83844
13.6 8.00023
13.6548 6.42109
13.7096 6.49378
13.7645 6.82045
13.8193 6.71707
13.8741 6.63543
13.9289 6.4033
13.9838 6.34078
14.0386 8.02037
14.0934 6.56614
14.1483 7.20479
14.2031 6.63363
14.2579 6.57409
14.3128 6.36607
14.3676 6.54499
14.4225 6.64793
14.4774 7.17276
14.5322 7.57207
14.5871 6.5248
14.642 7.09726
14.6968 6.80797
14.7517 7.8103
14.8066 8.33569
14.8615 6.96682
14.9163 6.73223
14.9712 7.21315
15.0261 7.94726
15.081 7.38476
15.1359 6.60314
15.1908 6.8755
15.2457 7.35252
15.3006 6.85715
15.3555 6.94564
15.4105 6.66667
15.4654 6.60337
15.5203 6.69644
15.5752 7.20143
15.6302 6.82616
15.6851 7.54984
15.74 7.20195
15.795 7.9924
15.8499 7.63762
15.9049 7.95993
15.9598 7.84671
16.0148 7.00053
16.0697 7.22121
16.1247 7.75943
16.1797 7.2541
16.2346 6.30432
16.2896 6.98763
16.3446 7.01543
16.3996 7.71698
16.4546 8.491
16.5096 8.17676
16.5645 7.38013
16.6195 6.0376
16.6745 7.52855
16.7296 5.73844
16.7649 7.78099