File: notebooks/003.xrd_phase_identification_with_pymatgen.data/unknown_xrd_1_wl=0.1824Angst.xy
1.4991e+00 1.9785e-01
1.5531e+00 1.9740e-01
1.6072e+00 2.3345e-01
1.6613e+00 2.5944e-01
1.7153e+00 2.8155e-01
1.7694e+00 3.2326e-01
1.8235e+00 3.5247e-01
1.8775e+00 4.0484e-01
1.9316e+00 4.8001e-01
1.9857e+00 5.1754e-01
2.0397e+00 5.8808e-01
2.0938e+00 6.6512e-01
2.1478e+00 7.3994e-01
2.2019e+00 8.1203e-01
2.2560e+00 8.6778e-01
2.3100e+00 9.6518e-01
2.3641e+00 1.0308e+00
2.4182e+00 1.0553e+00
2.4723e+00 1.0995e+00
2.5263e+00 1.0964e+00
2.5804e+00 1.0966e+00
2.6345e+00 1.0660e+00
2.6885e+00 1.0100e+00
2.7426e+00 9.5997e-01
2.7967e+00 9.0184e-01
2.8508e+00 8.6262e-01
2.9048e+00 8.0774e-01
2.9589e+00 1.0222e+00
3.0130e+00 4.5434e+00
3.0671e+00 7.4847e-01
3.1211e+00 6.4315e-01
3.1752e+00 6.0674e-01
3.2293e+00 5.6619e-01
3.2834e+00 5.3072e-01
3.3374e+00 5.2125e-01
3.3915e+00 4.9234e-01
3.4456e+00 4.9691e-01
3.4997e+00 5.0006e-01
3.5538e+00 4.8135e-01
3.6079e+00 4.7233e-01
3.6619e+00 4.6912e-01
3.7160e+00 4.6920e-01
3.7701e+00 4.4862e-01
3.8242e+00 4.2354e-01
3.8783e+00 4.0593e-01
3.9324e+00 3.8654e-01
3.9865e+00 4.1419e-01
4.0405e+00 6.0377e-01
4.0946e+00 1.0047e+01
4.1487e+00 6.1751e-01
4.2028e+00 3.9854e-01
4.2569e+00 4.0129e-01
4.3110e+00 4.3896e-01
4.3651e+00 1.1037e+00
4.4192e+00 1.1288e+00
4.4733e+00 5.1885e-01
4.5274e+00 7.7013e-01
4.5815e+00 5.4441e+00
4.6356e+00 1.9084e+01
4.6897e+00 1.1713e+01
4.7438e+00 9.6766e-01
4.7979e+00 6.4412e-01
4.8520e+00 6.9555e-01
4.9061e+00 9.0582e-01
4.9602e+00 3.9760e+00
5.0143e+00 7.9660e+01
5.0684e+00 2.7382e+00
5.1226e+00 1.0801e+01
5.1767e+00 2.2713e+00
5.2308e+00 6.6965e-01
5.2849e+00 9.0123e-01
5.3390e+00 5.5618e+00
5.3931e+00 5.5631e-01
5.4472e+00 4.6589e-01
5.5014e+00 4.4157e-01
5.5555e+00 4.4864e-01
5.6096e+00 4.7348e-01
5.6637e+00 5.6180e-01
5.7178e+00 1.2503e+00
5.7720e+00 2.2109e+01
5.8261e+00 3.3639e+00
5.8802e+00 9.5800e-01
5.9344e+00 7.2487e+00
5.9885e+00 2.5321e+00
6.0426e+00 1.0815e+00
6.0968e+00 4.6161e-01
6.1509e+00 4.1237e-01
6.2050e+00 4.1823e-01
6.2592e+00 4.1379e-01
6.3133e+00 4.0665e-01
6.3674e+00 4.2861e-01
6.4216e+00 4.6026e-01
6.4757e+00 7.6733e-01
6.5299e+00 1.1708e+01
6.5840e+00 1.6850e+00
6.6382e+00 1.1802e+00
6.6923e+00 4.9291e-01
6.7465e+00 6.1808e-01
6.8006e+00 4.9336e-01
6.8548e+00 4.8076e-01
6.9089e+00 1.3673e+00
6.9631e+00 5.3322e-01
7.0172e+00 4.7458e-01
7.0714e+00 5.1551e-01
7.1255e+00 4.8598e-01
7.1797e+00 4.9861e-01
7.2339e+00 5.0502e-01
7.2880e+00 5.1355e-01
7.3422e+00 5.4689e-01
7.3964e+00 7.0911e-01
7.4505e+00 4.9706e+00
7.5047e+00 1.2743e+00
7.5589e+00 3.3248e+00
7.6131e+00 7.5364e+00
7.6672e+00 8.1396e-01
7.7214e+00 5.8811e-01
7.7756e+00 5.6117e-01
7.8298e+00 6.9958e-01
7.8840e+00 5.5515e-01
7.9382e+00 5.7186e-01
7.9923e+00 6.4845e-01
8.0465e+00 1.2571e+00
8.1007e+00 5.3091e+00
8.1549e+00 3.9209e+00
8.2091e+00 5.9318e+00
8.2633e+00 8.3551e-01
8.3175e+00 6.6574e-01
8.3717e+00 1.3969e+00
8.4259e+00 2.5100e+00
8.4801e+00 1.8847e+00
8.5343e+00 5.9853e-01
8.5885e+00 5.4960e-01
8.6427e+00 5.3953e-01
8.6970e+00 5.3790e-01
8.7512e+00 6.4557e-01
8.8054e+00 1.7497e+00
8.8596e+00 4.3903e+00
8.9138e+00 6.1346e-01
8.9680e+00 4.9833e-01
9.0223e+00 5.6592e-01
9.0765e+00 5.0623e-01
9.1307e+00 9.7884e-01
9.1849e+00 6.6786e-01
9.2392e+00 3.8805e+00
9.2934e+00 1.6227e+00
9.3477e+00 3.9138e+00
9.4019e+00 1.3287e+00
9.4561e+00 6.0386e-01
9.5104e+00 1.3286e+00
9.5646e+00 3.3169e+00
9.6189e+00 9.8982e+00
9.6731e+00 1.2644e+00
9.7274e+00 1.0356e+00
9.7816e+00 6.0087e-01
9.8359e+00 2.4065e+00
9.8901e+00 1.0644e+00
9.9444e+00 5.6488e-01
9.9987e+00 1.7156e+00
1.0053e+01 3.8391e+00
1.0107e+01 5.6298e-01
1.0161e+01 4.5952e-01
1.0216e+01 4.6180e-01
1.0270e+01 1.3783e+00
1.0324e+01 8.6843e-01
1.0379e+01 5.2736e-01
1.0433e+01 1.3979e+00
1.0487e+01 2.5334e+00
1.0541e+01 5.6822e-01
1.0596e+01 4.4722e-01
1.0650e+01 8.9106e-01
1.0704e+01 5.8086e-01
1.0759e+01 4.1195e-01
1.0813e+01 3.8540e-01
1.0867e+01 3.9245e-01
1.0921e+01 3.7820e-01
1.0976e+01 3.7376e-01
1.1030e+01 3.7002e-01
1.1084e+01 4.0939e-01
1.1139e+01 4.1889e-01
1.1193e+01 6.7273e-01
1.1247e+01 4.1536e-01
1.1302e+01 3.8937e-01
1.1356e+01 4.1723e-01
1.1410e+01 7.0316e-01
1.1465e+01 8.1094e-01
1.1519e+01 1.2769e+00
1.1573e+01 2.3335e+00
1.1628e+01 3.1401e+00
1.1682e+01 7.3409e-01
1.1736e+01 4.2391e-01
1.1791e+01 4.4997e-01
1.1845e+01 5.0091e-01
1.1899e+01 1.3428e+00
1.1954e+01 1.6637e+00
1.2008e+01 5.0242e-01
1.2062e+01 4.8748e-01
1.2117e+01 4.1504e-01
1.2171e+01 6.0001e-01
1.2225e+01 8.9306e-01
1.2280e+01 5.6055e-01
1.2334e+01 1.2331e+00
1.2389e+01 2.4802e+00
1.2443e+01 8.0978e-01
1.2497e+01 5.2601e-01
1.2552e+01 6.1555e-01
1.2606e+01 3.6058e+00
1.2660e+01 1.9898e+00
1.2715e+01 5.5609e-01
1.2769e+01 4.9740e-01
1.2824e+01 5.4202e-01
1.2878e+01 7.6019e-01
1.2932e+01 2.5630e+00
1.2987e+01 2.8565e+00
1.3041e+01 8.2393e-01
1.3096e+01 1.5045e+00
1.3150e+01 1.0370e+00
1.3205e+01 1.0537e+00
1.3259e+01 8.1864e-01
1.3313e+01 1.0813e+00
1.3368e+01 4.5751e-01
1.3422e+01 4.0672e-01
1.3477e+01 4.3164e-01
1.3531e+01 4.1565e-01
1.3586e+01 3.9923e-01
1.3640e+01 3.9847e-01
1.3694e+01 6.4249e-01
1.3749e+01 5.1985e-01
1.3803e+01 5.3403e-01
1.3858e+01 1.5811e+00
1.3912e+01 8.6157e-01
1.3967e+01 5.1476e-01
1.4021e+01 9.7632e-01
1.4076e+01 9.4559e-01
1.4130e+01 5.9228e-01
1.4185e+01 2.0738e+00
1.4239e+01 1.0108e+00
1.4293e+01 4.3555e-01
1.4348e+01 3.9054e-01
1.4402e+01 3.8759e-01
1.4457e+01 4.1099e-01
1.4511e+01 7.6411e-01
1.4566e+01 1.0922e+00
1.4620e+01 4.7586e-01
1.4675e+01 4.0675e-01
1.4729e+01 4.7570e-01
1.4784e+01 7.2307e-01
1.4838e+01 6.8892e-01
1.4893e+01 4.8597e-01
1.4947e+01 4.9242e-01
1.5002e+01 6.0735e-01
1.5057e+01 2.0267e+00
1.5111e+01 9.4951e-01
1.5166e+01 4.6953e-01
1.5220e+01 4.4831e-01
1.5275e+01 5.7834e-01
1.5329e+01 3.8017e-01
1.5384e+01 3.6967e-01
1.5438e+01 7.0562e-01
1.5493e+01 7.0225e-01
1.5547e+01 6.1728e-01
1.5602e+01 4.1807e-01
1.5657e+01 4.3830e-01
1.5711e+01 5.1617e-01
1.5766e+01 5.7665e-01
1.5820e+01 1.3051e+00
1.5875e+01 5.6955e-01
1.5929e+01 4.2617e-01
1.5984e+01 4.8443e-01
1.6039e+01 1.0588e+00
1.6093e+01 4.7521e-01
1.6148e+01 3.9358e-01
1.6202e+01 4.8193e-01
1.6257e+01 4.5675e-01
1.6312e+01 4.8194e-01
1.6366e+01 5.5546e-01
1.6421e+01 8.4868e-01
1.6475e+01 3.8745e-01
1.6530e+01 3.7258e-01
1.6585e+01 4.6505e-01
1.6639e+01 5.3336e-01
1.6694e+01 4.0912e-01
1.6749e+01 5.0110e-01
1.6803e+01 5.9086e-01
1.6858e+01 1.0073e+00